Binding Energy/eV,Intensity,Part 1,Baseline komplett,Fit
1080.6,14027.2,14027.2,14027.2,14027.2
1080.47,14045.1,14045.1,14045.1,14045.1
1080.35,14061.9,14061.9,14061.9,14061.9
1080.22,13975.2,13975.2,13975.2,13975.2
1080.1,14066.7,14066.7,14066.7,14066.7
1079.97,13991.6,13991.6,13991.6,13991.6
1079.85,14051.4,14051.5,14051.4,14051.5
1079.72,14037.2,14037.2,14037.2,14037.2
1079.6,14014.1,14014.1,14014.1,14014.1
1079.47,13992.8,13992.8,13992.8,13992.8
1079.35,14036.7,14036.7,14036.7,14036.7
1079.22,14043.2,14043.3,14043.2,14043.3
1079.1,14051.1,14051.1,14051.1,14051.1
1078.97,14079.0,14079.0,14079.0,14079.0
1078.85,14050.3,14050.4,14050.3,14050.4
1078.72,14127.6,14127.6,14127.6,14127.6
1078.6,14057.3,14057.4,14057.3,14057.4
1078.47,14039.4,14039.5,14039.4,14039.5
1078.35,14060.0,14060.1,14060.0,14060.1
1078.22,14088.0,14088.1,14088.0,14088.1
1078.1,14023.1,14023.2,14023.1,14023.2
1077.97,14037.9,14037.9,14037.9,14037.9
1077.85,14064.9,14065.0,14064.9,14065.0
1077.72,14041.0,14041.1,14041.0,14041.1
1077.6,14059.7,14059.7,14059.7,14059.7
1077.47,14061.7,14061.7,14061.7,14061.7
1077.35,14122.1,14122.2,14122.1,14122.2
1077.22,14068.8,14068.9,14068.8,14068.9
1077.1,14090.9,14091.0,14090.9,14091.0
1076.97,14120.8,14120.9,14120.8,14120.9
1076.85,14051.0,14051.1,14051.0,14051.1
1076.72,14076.0,14076.1,14076.0,14076.1
1076.6,14067.4,14067.6,14067.4,14067.6
1076.47,14093.8,14093.9,14093.8,14093.9
1076.35,14011.8,14011.9,14011.8,14011.9
1076.22,14033.1,14033.3,14033.1,14033.3
1076.1,14080.2,14080.4,14080.2,14080.4
1075.97,14056.0,14056.2,14056.0,14056.2
1075.85,14064.7,14064.9,14064.7,14064.9
1075.72,14122.3,14100.9,14100.7,14100.9
1075.6,14115.0,14103.9,14103.6,14103.9
1075.47,14060.0,14106.9,14106.6,14106.9
1075.35,14160.9,14109.9,14109.5,14109.9
1075.22,14123.4,14112.8,14112.5,14112.8
1075.1,14121.2,14115.8,14115.4,14115.8
1074.97,14063.7,14118.9,14118.4,14118.9
1074.85,14154.0,14121.9,14121.3,14121.9
1074.72,14164.3,14124.9,14124.3,14124.9
1074.6,14176.1,14128.0,14127.2,14128.0
1074.47,14115.1,14131.1,14130.1,14131.1
1074.35,14121.1,14134.2,14133.1,14134.2
1074.22,14121.4,14137.4,14136.0,14137.4
1074.1,14217.1,14140.6,14139.0,14140.6
1073.97,14146.0,14144.0,14141.9,14144.0
1073.85,14118.4,14147.5,14144.9,14147.5
1073.72,14089.6,14151.2,14147.8,14151.2
1073.6,14155.1,14155.3,14150.8,14155.3
1073.47,14131.4,14159.9,14153.7,14159.9
1073.35,14168.4,14165.0,14156.7,14165.0
1073.22,14171.7,14171.1,14159.6,14171.1
1073.1,14230.0,14178.3,14162.6,14178.3
1072.97,14179.2,14186.9,14165.5,14186.9
1072.85,14216.1,14197.0,14168.5,14197.0
1072.72,14266.0,14208.9,14171.4,14208.9
1072.6,14227.1,14222.4,14174.4,14222.4
1072.47,14229.7,14237.2,14177.3,14237.2
1072.35,14230.2,14252.9,14180.3,14252.9
1072.22,14241.6,14268.5,14183.2,14268.5
1072.1,14237.9,14283.2,14186.2,14283.2
1071.97,14286.2,14295.8,14189.1,14295.8
1071.85,14353.4,14305.4,14192.1,14305.4
1071.72,14332.4,14311.2,14195.0,14311.2
1071.6,14304.3,14313.0,14198.0,14313.0
1071.47,14291.8,14310.9,14200.9,14310.9
1071.35,14358.2,14305.4,14203.9,14305.4
1071.22,14306.8,14297.4,14206.8,14297.4
1071.1,14204.9,14287.9,14209.8,14287.9
1070.97,14319.2,14278.0,14212.7,14278.0
1070.85,14271.9,14268.6,14215.6,14268.6
1070.72,14237.0,14260.4,14218.6,14260.4
1070.6,14273.8,14253.7,14221.5,14253.7
1070.47,14274.6,14248.7,14224.5,14248.7
1070.35,14236.7,14245.4,14227.4,14245.4
1070.22,14225.3,14243.5,14230.4,14243.5
1070.1,14221.1,14242.9,14233.3,14242.9
1069.97,14215.1,14243.3,14236.3,14243.3
1069.85,14214.9,14244.4,14239.2,14244.4
1069.72,14283.9,14246.0,14242.2,14246.0
1069.6,14229.0,14248.0,14245.1,14248.0
1069.47,14251.7,14250.3,14248.1,14250.3
1069.35,14185.6,14252.8,14251.0,14252.8
1069.22,14243.0,14255.4,14254.0,14255.4
1069.1,14306.4,14258.1,14256.9,14258.1
1068.97,14268.7,14260.8,14259.9,14260.8
1068.85,14210.8,14263.6,14262.8,14263.6
1068.72,14292.4,14266.5,14265.8,14266.5
1068.6,14302.6,14269.3,14268.7,14269.3
1068.47,14244.2,14272.2,14271.7,14272.2
1068.35,14312.7,14275.1,14274.6,14275.1
1068.22,14284.2,14278.0,14277.6,14278.0
1068.1,14244.1,14280.9,14280.5,14280.9
1067.97,14358.9,14283.8,14283.5,14283.8
1067.85,14228.9,14286.7,14286.4,14286.7
1067.72,14320.2,14289.6,14289.4,14289.6
1067.6,14346.6,14292.5,14292.3,14292.5
1067.47,14293.7,14295.5,14295.3,14295.5
1067.35,14288.9,14298.4,14298.2,14298.4
1067.22,14302.1,14301.3,14301.1,14301.3
1067.1,14312.4,14312.6,14312.4,14312.6
1066.97,14300.3,14300.5,14300.3,14300.5
1066.85,14280.2,14280.4,14280.2,14280.4
1066.72,14297.7,14297.8,14297.7,14297.8
1066.6,14249.0,14249.1,14249.0,14249.1
1066.47,14246.2,14246.3,14246.2,14246.3
1066.35,14244.8,14244.9,14244.8,14244.9
1066.22,14277.8,14277.9,14277.8,14277.9
1066.1,14339.0,14339.1,14339.0,14339.1
1065.97,14285.8,14285.9,14285.8,14285.9
1065.85,14323.7,14323.7,14323.7,14323.7
1065.72,14322.8,14322.8,14322.8,14322.8
1065.6,14226.3,14226.4,14226.3,14226.4
